Optical constants for amorphous carbon - ACAR sample.  Data from Zubko V. et al 1996, MNRAS, 282, 1321-1329,  Range 0.05 - 1984 mic, 1245 entries. [ZI, Aug 96

Wavelength [microns]  Re(m)       Im(m)
    0.0400800      0.90920001    0.0791800
    0.0404300      0.90259999    0.0840200
    0.0407800      0.89819998    0.0888300
    0.0411400      0.89459997    0.0935700
    0.0414900      0.89150000    0.0982400
    0.0418600      0.88880002     0.102900
    0.0422200      0.88650000     0.107400
    0.0425900      0.88429999     0.111900
    0.0429600      0.88239998     0.116400
    0.0433400      0.88069999     0.120800
    0.0437200      0.87910002     0.125200
    0.0441000      0.87760001     0.129500
    0.0444800      0.87620002     0.133800
    0.0448700      0.87489998     0.138100
    0.0452600      0.87370002     0.142400
    0.0456600      0.87260002     0.146700
    0.0460500      0.87159997     0.150900
    0.0464600      0.87059999     0.155200
    0.0468600      0.86970001     0.159400
    0.0472700      0.86879998     0.163700
    0.0476800      0.86799997     0.167900
    0.0481000      0.86720002     0.172200
    0.0485200      0.86640000     0.176500
    0.0489400      0.86570001     0.180800
    0.0493700      0.86510003     0.185100
    0.0498000      0.86440003     0.189400
    0.0502400      0.86379999     0.193800
    0.0506700      0.86320001     0.198200
    0.0511200      0.86269999     0.202700
    0.0515600      0.86220002     0.207200
    0.0520100      0.86180001     0.211700
    0.0524700      0.86129999     0.216300
    0.0529200      0.86100000     0.220900
    0.0533900      0.86059999     0.225600
    0.0538500      0.86030000     0.230300
    0.0543200      0.86009997     0.235100
    0.0548000      0.85979998     0.239900
    0.0552700      0.85970002     0.244800
    0.0557600      0.85960001     0.249800
    0.0562400      0.85949999     0.254800
    0.0567300      0.85949999     0.259800
    0.0572300      0.85949999     0.265000
    0.0577300      0.85960001     0.270200
    0.0582300      0.85970002     0.275500
    0.0587400      0.86000001     0.280800
    0.0592500      0.86019999     0.286300
    0.0597700      0.86059999     0.291800
    0.0602900      0.86110002     0.297400
    0.0608200      0.86159998     0.303100
    0.0613500      0.86229998     0.308900
    0.0618900      0.86299998     0.314700
    0.0624300      0.86390001     0.320600
    0.0629700      0.86489999     0.326600
    0.0635200      0.86600000     0.332600
    0.0640700      0.86729997     0.338600
    0.0646300      0.86860001     0.344800
    0.0652000      0.87010002     0.350900
    0.0657700      0.87180001     0.357100
    0.0663400      0.87360001     0.363300
    0.0669200      0.87550002     0.369500
    0.0675000      0.87750000     0.375800
    0.0680900      0.87970001     0.382100
    0.0686900      0.88200003     0.388400
    0.0692900      0.88440001     0.394700
    0.0698900      0.88700002     0.401000
    0.0705000      0.88970000     0.407300
    0.0711200      0.89249998     0.413500
    0.0717400      0.89550000     0.419800
    0.0723600      0.89850003     0.426100
    0.0729900      0.90170002     0.432400
    0.0736300      0.90499997     0.438700
    0.0742700      0.90850002     0.445000
    0.0749200      0.91200000     0.451300
    0.0755800      0.91570002     0.457600
    0.0762400      0.91949999     0.463900
    0.0769000      0.92339998     0.470200
    0.0775700      0.92750001     0.476500
    0.0782500      0.93169999     0.482800
    0.0789300      0.93610001     0.489200
    0.0796200      0.94069999     0.495600
    0.0803200      0.94540000     0.502000
    0.0810200      0.95029998     0.508400
    0.0817200      0.95550001     0.514900
    0.0824400      0.96090001     0.521300
    0.0831600      0.96649998     0.527700
    0.0838800      0.97240001     0.534000
    0.0846200      0.97860003     0.540200
    0.0853500      0.98500001     0.546300
    0.0861000      0.99169999     0.552300
    0.0868500      0.99860001     0.558200
    0.0876100       1.0060000     0.563900
    0.0883700       1.0130000     0.569300
    0.0891400       1.0210000     0.574600
    0.0899200       1.0290000     0.579600
    0.0907100       1.0369999     0.584300
    0.0915000       1.0450000     0.588800
    0.0923000       1.0540000     0.592900
    0.0931000       1.0620000     0.596800
    0.0939200       1.0710000     0.600500
    0.0947300       1.0790000     0.603800
    0.0955600       1.0880001     0.606900
    0.0964000       1.0970000     0.609600
    0.0972400       1.1059999     0.612200
    0.0980900       1.1140000     0.614400
    0.0989400       1.1230000     0.616400
    0.0998100       1.1320000     0.618100
     0.100700       1.1410000     0.619600
     0.101600       1.1500000     0.620800
     0.102400       1.1590000     0.621800
     0.103300       1.1670001     0.622500
     0.104200       1.1760000     0.622900
     0.105100       1.1849999     0.623100
     0.106100       1.1940000     0.623000
     0.107000       1.2020000     0.622700
     0.107900       1.2110000     0.622100
     0.108900       1.2190000     0.621200
     0.109800       1.2280000     0.620100
     0.110800       1.2359999     0.618800
     0.111700       1.2440000     0.617200
     0.112700       1.2520000     0.615300
     0.113700       1.2600000     0.613200
     0.114700       1.2680000     0.610800
     0.115700       1.2750000     0.608200
     0.116700       1.2830000     0.605400
     0.117700       1.2900000     0.602300
     0.118700       1.2970001     0.599000
     0.119800       1.3040000     0.595500
     0.120800       1.3099999     0.591800
     0.121900       1.3170000     0.587900
     0.122900       1.3230000     0.583800
     0.124000       1.3290000     0.579500
     0.125100       1.3340000     0.575100
     0.126200       1.3390000     0.570700
     0.127300       1.3440000     0.566100
     0.128400       1.3490000     0.561500
     0.129500       1.3530000     0.556900
     0.130700       1.3570000     0.552300
     0.131800       1.3609999     0.547700
     0.133000       1.3650000     0.543100
     0.134100       1.3680000     0.538400
     0.135300       1.3720000     0.533500
     0.136500       1.3750000     0.528400
     0.137700       1.3789999     0.523100
     0.138900       1.3820000     0.517400
     0.140100       1.3839999     0.511300
     0.141300       1.3870000     0.504800
     0.142500       1.3880000     0.498000
     0.143800       1.3890001     0.491000
     0.145000       1.3880000     0.484000
     0.146300       1.3870000     0.477200
     0.147600       1.3860000     0.470700
     0.148900       1.3830000     0.464700
     0.150200       1.3800000     0.459400
     0.151500       1.3760000     0.454800
     0.152800       1.3720000     0.450900
     0.154100       1.3680000     0.447700
     0.155500       1.3640000     0.444900
     0.156800       1.3600000     0.442400
     0.158200       1.3559999     0.440200
     0.159600       1.3520000     0.438100
     0.161000       1.3480000     0.435900
     0.162400       1.3440000     0.433700
     0.163800       1.3390000     0.431600
     0.165200       1.3340000     0.429900
     0.166700       1.3270000     0.428600
     0.168100       1.3210000     0.427900
     0.169600       1.3140000     0.428100
     0.171100       1.3060000     0.429100
     0.172500       1.2990000     0.431200
     0.174100       1.2910000     0.434100
     0.175600       1.2840000     0.437900
     0.177100       1.2770000     0.442500
     0.178700       1.2700000     0.447800
     0.180200       1.2640001     0.453700
     0.181800       1.2580000     0.460200
     0.183400       1.2520000     0.467200
     0.185000       1.2470000     0.474800
     0.186600       1.2420000     0.482800
     0.188200       1.2380000     0.491400
     0.189900       1.2340000     0.500300
     0.191500       1.2309999     0.509700
     0.193200       1.2280000     0.519400
     0.194900       1.2260000     0.529300
     0.196600       1.2250000     0.539400
     0.198300       1.2240000     0.549400
     0.200000       1.2240000     0.559400
     0.201800       1.2240000     0.569200
     0.203500       1.2250000     0.578800
     0.205300       1.2250000     0.588400
     0.207100       1.2260000     0.598100
     0.208900       1.2270000     0.607800
     0.210700       1.2280000     0.617800
     0.212600       1.2300000     0.628200
     0.214400       1.2309999     0.638800
     0.216300       1.2330000     0.649600
     0.218200       1.2359999     0.660700
     0.220100       1.2390000     0.672000
     0.222000       1.2430000     0.683400
     0.223900       1.2470000     0.695000
     0.225900       1.2520000     0.706400
     0.227900       1.2580000     0.717800
     0.229900       1.2640001     0.728900
     0.231900       1.2710000     0.739700
     0.233900       1.2780000     0.750100
     0.235900       1.2850000     0.760400
     0.238000       1.2930000     0.770500
     0.240100       1.3010000     0.780700
     0.242200       1.3090000     0.791000
     0.244300       1.3180000     0.801300
     0.246400       1.3279999     0.811400
     0.248600       1.3390000     0.821000
     0.250700       1.3500000     0.829800
     0.252900       1.3620000     0.837800
     0.255100       1.3740000     0.845000
     0.257300       1.3870000     0.851400
     0.259600       1.3990000     0.857200
     0.261900       1.4110000     0.862500
     0.264100       1.4230000     0.867400
     0.266400       1.4349999     0.871900
     0.268800       1.4470000     0.875900
     0.271100       1.4590000     0.879500
     0.273500       1.4710000     0.882700
     0.275900       1.4830000     0.885300
     0.278300       1.4950000     0.887400
     0.280700       1.5070000     0.888800
     0.283200       1.5190001     0.889400
     0.285600       1.5290000     0.889600
     0.288100       1.5390000     0.889600
     0.290600       1.5490000     0.889600
     0.293200       1.5580000     0.890000
     0.295700       1.5670000     0.890700
     0.298300       1.5760000     0.891600
     0.300900       1.5850000     0.892500
     0.303500       1.5940000     0.893300
     0.306200       1.6030000     0.894000
     0.308900       1.6120000     0.894700
     0.311600       1.6200000     0.895200
     0.314300       1.6289999     0.895700
     0.317000       1.6380000     0.896100
     0.319800       1.6470000     0.896400
     0.322600       1.6560000     0.896600
     0.325400       1.6640000     0.896700
     0.328200       1.6730000     0.896700
     0.331100       1.6810000     0.896700
     0.334000       1.6900001     0.896500
     0.336900       1.6980000     0.896300
     0.339800       1.7070000     0.896000
     0.342800       1.7150000     0.895600
     0.345800       1.7230000     0.895200
     0.348800       1.7320000     0.894600
     0.351900       1.7400000     0.894000
     0.354900       1.7480000     0.893400
     0.358000       1.7560000     0.892600
     0.361200       1.7640001     0.891800
     0.364300       1.7720000     0.890900
     0.367500       1.7800000     0.890000
     0.370700       1.7869999     0.889000
     0.373900       1.7950000     0.887900
     0.377200       1.8030000     0.886700
     0.380500       1.8099999     0.885500
     0.383800       1.8180000     0.884200
     0.387200       1.8250000     0.882900
     0.390500       1.8329999     0.881500
     0.393900       1.8400000     0.880100
     0.397400       1.8470000     0.878500
     0.400800       1.8550000     0.877000
     0.404300       1.8620000     0.875300
     0.407900       1.8690000     0.873700
     0.411400       1.8760000     0.871900
     0.415000       1.8830000     0.870200
     0.418600       1.8890001     0.868300
     0.422300       1.8960000     0.866500
     0.426000       1.9030000     0.864600
     0.429700       1.9090000     0.862700
     0.433500       1.9160000     0.860700
     0.437200       1.9220001     0.858700
     0.441100       1.9290000     0.856700
     0.444900       1.9349999     0.854600
     0.448800       1.9410000     0.852500
     0.452700       1.9470000     0.850400
     0.456700       1.9529999     0.848300
     0.460600       1.9590000     0.846200
     0.464700       1.9650000     0.844100
     0.468700       1.9710000     0.841900
     0.472800       1.9770000     0.839800
     0.476900       1.9820000     0.837700
     0.481100       1.9880000     0.835500
     0.485300       1.9930000     0.833400
     0.489500       1.9990000     0.831200
     0.493800       2.0039999     0.829100
     0.498100       2.0090001     0.827000
     0.502500       2.0139999     0.824900
     0.506800       2.0200000     0.822800
     0.511300       2.0250001     0.820800
     0.515700       2.0300000     0.818700
     0.520200       2.0350001     0.816700
     0.524800       2.0400000     0.814700
     0.529400       2.0439999     0.812700
     0.534000       2.0490000     0.810700
     0.538600       2.0539999     0.808800
     0.543300       2.0590000     0.806800
     0.548100       2.0630000     0.804900
     0.552900       2.0680001     0.803000
     0.557700       2.0730000     0.801200
     0.562600       2.0769999     0.799300
     0.567500       2.0820000     0.797500
     0.572400       2.0860000     0.795700
     0.577400       2.0910001     0.793900
     0.582500       2.0950000     0.792200
     0.587500       2.0990000     0.790400
     0.592700       2.1040001     0.788700
     0.597800       2.1080000     0.787100
     0.603100       2.1120000     0.785400
     0.608300       2.1170001     0.783800
     0.613600       2.1210001     0.782200
     0.619000       2.1250000     0.780600
     0.624400       2.1289999     0.779000
     0.629800       2.1329999     0.777500
     0.635300       2.1380000     0.775900
     0.640900       2.1420000     0.774400
     0.646500       2.1459999     0.772900
     0.652100       2.1500001     0.771300
     0.657800       2.1540000     0.769800
     0.663500       2.1580000     0.768300
     0.669300       2.1619999     0.766800
     0.675200       2.1659999     0.765300
     0.681100       2.1700001     0.763700
     0.687000       2.1740000     0.762200
     0.693000       2.1780000     0.760700
     0.699100       2.1819999     0.759100
     0.705200       2.1860001     0.757500
     0.711300       2.1900001     0.755900
     0.717500       2.1940000     0.754300
     0.723800       2.1970000     0.752700
     0.730100       2.2010000     0.751200
     0.736500       2.2049999     0.749600
     0.742900       2.2079999     0.748100
     0.749400       2.2110000     0.746700
     0.755900       2.2149999     0.745300
     0.762500       2.2179999     0.744000
     0.769200       2.2210000     0.742800
     0.775900       2.2240000     0.741700
     0.782700       2.2270000     0.740700
     0.789500       2.2300000     0.739800
     0.796400       2.2330000     0.739100
     0.803300       2.2360001     0.738500
     0.810300       2.2390001     0.738100
     0.817400       2.2420001     0.737700
     0.824500       2.2460001     0.737500
     0.831700       2.2490001     0.737400
     0.839000       2.2520001     0.737400
     0.846300       2.2560000     0.737300
     0.853700       2.2600000     0.737300
     0.861200       2.2639999     0.737300
     0.868700       2.2679999     0.737200
     0.876300       2.2720001     0.737100
     0.883900       2.2760000     0.736900
     0.891600       2.2809999     0.736500
     0.899400       2.2850001     0.736000
     0.907300       2.2900000     0.735400
     0.915200       2.2939999     0.734600
     0.923200       2.2990000     0.733600
     0.931200       2.3030000     0.732500
     0.939300       2.3069999     0.731300
     0.947500       2.3110001     0.730000
     0.955800       2.3160000     0.728600
     0.964200       2.3190000     0.727200
     0.972600       2.3230000     0.725800
     0.981100       2.3269999     0.724300
     0.989600       2.3310001     0.722900
     0.998300       2.3340001     0.721500
      1.00700       2.3369999     0.720100
      1.01600       2.3410001     0.718800
      1.02500       2.3440001     0.717600
      1.03400       2.3469999     0.716500
      1.04300       2.3499999     0.715400
      1.05200       2.3529999     0.714400
      1.06100       2.3559999     0.713500
      1.07000       2.3580000     0.712700
      1.07900       2.3610001     0.712000
      1.08900       2.3640001     0.711400
      1.09800       2.3670001     0.710900
      1.10800       2.3699999     0.710500
      1.11800       2.3729999     0.710200
      1.12700       2.3759999     0.710000
      1.13700       2.3789999     0.709900
      1.14700       2.3820000     0.709800
      1.15700       2.3850000     0.709700
      1.16700       2.3889999     0.709600
      1.17700       2.3920000     0.709400
      1.18800       2.3950000     0.709200
      1.19800       2.3989999     0.708900
      1.20900       2.4020000     0.708500
      1.21900       2.4059999     0.707900
      1.23000       2.4089999     0.707300
      1.24000       2.4130001     0.706700
      1.25100       2.4159999     0.706100
      1.26200       2.4189999     0.705500
      1.27300       2.4219999     0.705100
      1.28400       2.4240000     0.704700
      1.29600       2.4270000     0.704600
      1.30700       2.4300001     0.704600
      1.31800       2.4319999     0.704900
      1.33000       2.4349999     0.705300
      1.34100       2.4389999     0.705900
      1.35300       2.4419999     0.706400
      1.36500       2.4449999     0.706900
      1.37700       2.4489999     0.707400
      1.38900       2.4530001     0.707600
      1.40100       2.4570000     0.707700
      1.41300       2.4610000     0.707400
      1.42600       2.4649999     0.706900
      1.43800       2.4690001     0.706300
      1.45100       2.4719999     0.705600
      1.46300       2.4749999     0.704900
      1.47600       2.4779999     0.704300
      1.48900       2.4809999     0.703800
      1.50200       2.4840000     0.703600
      1.51500       2.4860001     0.703700
      1.52800       2.4890001     0.704000
      1.54100       2.4920001     0.704500
      1.55500       2.4949999     0.705200
      1.56900       2.4979999     0.705800
      1.58200       2.5009999     0.706500
      1.59600       2.5050001     0.707100
      1.61000       2.5079999     0.707500
      1.62400       2.5120001     0.707800
      1.63800       2.5160000     0.707900
      1.65200       2.5190001     0.707900
      1.66700       2.5220001     0.708000
      1.68100       2.5260000     0.708000
      1.69600       2.5290000     0.708200
      1.71100       2.5320001     0.708500
      1.72600       2.5350001     0.709000
      1.74100       2.5380001     0.709600
      1.75600       2.5420001     0.710200
      1.77100       2.5450001     0.710900
      1.78700       2.5490000     0.711500
      1.80200       2.5530000     0.712000
      1.81800       2.5560000     0.712300
      1.83400       2.5599999     0.712600
      1.85000       2.5639999     0.712900
      1.86600       2.5669999     0.713200
      1.88300       2.5699999     0.713600
      1.89900       2.5739999     0.714200
      1.91600       2.5769999     0.715100
      1.93200       2.5810001     0.716100
      1.94900       2.5850000     0.717100
      1.96600       2.5899999     0.717900
      1.98300       2.5940001     0.718400
      2.00100       2.5990000     0.718400
      2.01800       2.6040001     0.717700
      2.03600       2.6080000     0.716600
      2.05300       2.6120000     0.715400
      2.07100       2.6140001     0.714300
      2.08900       2.6170001     0.713800
      2.10800       2.6190000     0.714100
      2.12600       2.6210001     0.715300
      2.14500       2.6250000     0.717000
      2.16300       2.6289999     0.718600
