Pyroxene Minerals (crystalline) (Jäger et al. 1998) :Enstatite (parallel to c-axis) from : http://www.astro.uni-jena.de/Laboratory/Database/data/silicate/ens_p.lnk808 linesmicrons    n               k

Wavelength [microns]  Re(m)       Im(m)
      2.00000       1.4923500    0.0131700
      2.50000       1.4778600    0.0166200
      3.00000       1.4684800    0.0193400
      3.50000       1.4584600    0.0232300
      4.00000       1.4482900    0.0266400
      4.50000       1.4311301    0.0325900
      5.00000       1.4135100    0.0371400
      5.50000       1.3936599    0.0421000
      6.00000       1.3665000    0.0481400
      6.20000       1.3554500    0.0496200
      6.40000       1.3433100    0.0505900
      6.60000       1.3306100    0.0520700
      6.80000       1.3169100    0.0533600
      7.00000       1.3034900    0.0547100
      7.10000       1.2884500    0.0543600
      7.20000       1.2807800    0.0559100
      7.30000       1.2672300    0.0567700
      7.40000       1.2554600    0.0581200
      7.50000       1.2485400    0.0604900
      7.60000       1.2296400    0.0662500
      7.70000       1.2227300    0.0674600
      7.80000       1.2064000    0.0673300
      7.90000       1.1979100    0.0634800
      8.00117       1.1716700    0.0686000
      8.01056       1.1690500    0.0704000
      8.01998       1.1658300    0.0732600
      8.02941       1.1704500    0.0743400
      8.03887       1.1657300    0.0695900
      8.04835       1.1640300    0.0739100
      8.05785       1.1643000    0.0711600
      8.06738       1.1587400    0.0724300
      8.07692       1.1637100    0.0777000
      8.08649       1.1640900    0.0615300
      8.09609       1.1424600    0.0688500
      8.10570       1.1543000    0.0825600
      8.11534       1.1530700    0.0742000
      8.12500       1.1599000    0.0777700
      8.13468       1.1521000    0.0606500
      8.14439       1.1430399    0.0719300
      8.15412       1.1457200    0.0646300
      8.16388       1.1317101    0.0699100
      8.17365       1.1360800    0.0782800
      8.18345       1.1388500    0.0774600
      8.19328       1.1403600    0.0735900
      8.20313       1.1381000    0.0695100
      8.21300       1.1313900    0.0630500
      8.22289       1.1208200    0.0676800
      8.23281       1.1199501    0.0706300
      8.24275       1.1131001    0.0749800
      8.25272       1.1192300    0.0824300
      8.26271       1.1211600    0.0740900
      8.27273       1.1146600    0.0737700
      8.28277       1.1130000    0.0740300
      8.29283       1.1102999    0.0735700
      8.30292       1.1064200    0.0711400
      8.31303       1.1002001    0.0753500
      8.32317       1.1040900    0.0740700
      8.33333       1.0913800    0.0712600
      8.34352       1.0958200    0.0851400
      8.35373       1.0985900    0.0666700
      8.36397       1.0794400    0.0744600
      8.37423       1.0900300    0.0789100
      8.38452       1.0766799    0.0725900
      8.39483       1.0819900    0.0892800
      8.40517       1.0905100    0.0695600
      8.41554       1.0777100    0.0679200
      8.42593       1.0762000    0.0542000
      8.43634       1.0465800    0.0518500
      8.44678       1.0351400    0.0721100
      8.45725       1.0346200    0.0800100
      8.46774       1.0379300    0.0941500
      8.47826       1.0466700    0.0824900
      8.48881       1.0319200    0.0843400
      8.49938       1.0362999    0.0886400
      8.50998       1.0306700    0.0853600
      8.52060       1.0283300    0.0822600
      8.53125       1.0110300    0.0838800
      8.54193       1.0172400     0.103230
      8.55263       1.0249400    0.0851800
      8.56336       1.0087500    0.0804900
      8.57412       1.0008500    0.0821900
      8.58491      0.98961997    0.0811000
      8.59572      0.97614998    0.0915400
      8.60656      0.98677999    0.0996000
      8.61742      0.97815001    0.0803400
      8.62832      0.95471001    0.0880000
      8.63924      0.95447999    0.0926800
      8.65019      0.93515998    0.0910100
      8.66117      0.92736000     0.106160
      8.67217      0.92036998     0.104290
      8.68321      0.90448999     0.112920
      8.69427      0.89845002     0.120950
      8.70536      0.88757002     0.121890
      8.71647      0.86783999     0.125730
      8.72762      0.84573001     0.139180
      8.73880      0.82936001     0.157200
      8.75000      0.81023997     0.169680
      8.76123      0.77709001     0.195330
      8.77249      0.75313997     0.239210
      8.78378      0.73106998     0.295520
      8.79510      0.73241001     0.376660
      8.80645      0.76743001     0.463480
      8.81783      0.85364002     0.536140
      8.82924      0.96100003     0.557780
      8.84067       1.0683200     0.528070
      8.85214       1.1334100     0.461380
      8.86364       1.1657000     0.386640
      8.87516       1.1587700     0.322540
      8.88672       1.1406900     0.280380
      8.89830       1.1172100     0.258870
      8.90992       1.1098100     0.245940
      8.92157       1.0976800     0.226110
      8.93325       1.0855401     0.216400
      8.94495       1.0775501     0.202090
      8.95669       1.0598700     0.188550
      8.96846       1.0434700     0.187720
      8.98026       1.0342400     0.182780
      8.99210       1.0178500     0.189080
      9.00396       1.0395800     0.190650
      9.01585       1.0240901     0.145530
      9.02778      0.98085999     0.146890
      9.03974      0.96915001     0.160140
      9.05172      0.95166999     0.164330
      9.06374      0.94765002     0.180480
      9.07580      0.94705999     0.178280
      9.08788      0.93926001     0.178330
      9.10000      0.92943001     0.178960
      9.11215      0.92439997     0.182330
      9.12433      0.91184998     0.179840
      9.13655      0.90644997     0.193540
      9.14879      0.90766001     0.182860
      9.16107      0.88423002     0.187270
      9.17339      0.88937002     0.200010
      9.18573      0.88479000     0.188980
      9.19811      0.87098002     0.190270
      9.21053      0.86273998     0.192250
      9.22297      0.85281003     0.192670
      9.23545      0.84152001     0.196580
      9.24797      0.83649999     0.199410
      9.26052      0.82516003     0.195910
      9.27310      0.81212002     0.200910
      9.28571      0.80434000     0.200670
      9.29836      0.78675002     0.200630
      9.31105      0.77389997     0.209460
      9.32377      0.76415002     0.210630
      9.33653      0.74778003     0.214600
      9.34932      0.73565000     0.219400
      9.36214      0.71908998     0.222450
      9.37500      0.70349997     0.228180
      9.38790      0.68443000     0.231880
      9.40083      0.66373003     0.240670
      9.41379      0.64371002     0.248510
      9.42680      0.61848003     0.258080
      9.43983      0.59227002     0.273670
      9.45291      0.56557000     0.290370
      9.46602      0.53381997     0.314470
      9.47917      0.50556999     0.346010
      9.49235      0.47468001     0.385660
      9.50557      0.45383999     0.439720
      9.51883      0.44262001     0.497580
      9.53212      0.44569999     0.564740
      9.54545      0.46708000     0.628910
      9.55882      0.50493002     0.689640
      9.57223      0.56137002     0.736110
      9.58567      0.62752998     0.763340
      9.59916      0.70064002     0.768720
      9.61268      0.76924998     0.741820
      9.62623      0.81266999     0.696700
      9.63983      0.83964002     0.643650
      9.65347      0.83963001     0.583960
      9.66714      0.81737000     0.536190
      9.68085      0.78316998     0.500850
      9.69460      0.74068999     0.478520
      9.70839      0.69388998     0.469080
      9.72222      0.64546001     0.471060
      9.73609      0.59546000     0.485080
      9.75000      0.54790002     0.512830
      9.76395      0.50694001     0.554440
      9.77794      0.48017001     0.604980
      9.79197      0.46426001     0.657020
      9.80603      0.45932001     0.710010
      9.82014      0.46169999     0.761030
      9.83429      0.47383001     0.812300
      9.84848      0.49516001     0.859140
      9.86272      0.52678001     0.900000
      9.87699      0.56436998     0.931520
      9.89130      0.61230999     0.951350
      9.90566      0.65815002     0.948930
      9.92006      0.69581997     0.932070
      9.93450      0.71596003     0.899540
      9.94898      0.71429998     0.866390
      9.96350      0.69233000     0.837830
      9.97807      0.65373999     0.826940
      9.99268      0.61184001     0.835600
      10.0073      0.57191998     0.860710
      10.0220      0.53991997     0.902070
      10.0368      0.52392000     0.951150
      10.0515      0.51795000     0.999910
      10.0664      0.52272999      1.04811
      10.0812      0.53156000      1.09051
      10.0962      0.54484999      1.13354
      10.1111      0.56132001      1.17208
      10.1261      0.58015001      1.21278
      10.1412      0.60509998      1.25246
      10.1563      0.63824999      1.29207
      10.1714      0.68093997      1.32418
      10.1866      0.73275000      1.34748
      10.2018      0.79018003      1.34963
      10.2171      0.83929002      1.33136
      10.2324      0.87132001      1.29422
      10.2478      0.87295002      1.25043
      10.2632      0.84654999      1.21937
      10.2786      0.80419999      1.21105
      10.2941      0.75788999      1.22875
      10.3097      0.72084999      1.26812
      10.3253      0.69663000      1.31965
      10.3409      0.68580002      1.37789
      10.3566      0.68694001      1.43852
      10.3723      0.69887000      1.49625
      10.3881      0.71324998      1.55237
      10.4040      0.73531002      1.60937
      10.4199      0.75857002      1.66483
      10.4358      0.79054999      1.72529
      10.4518      0.82929999      1.77964
      10.4678      0.87009001      1.83361
      10.4839      0.91399997      1.88863
      10.5000      0.96627003      1.94537
      10.5162       1.0233500      2.00002
      10.5324       1.0897400      2.05555
      10.5487       1.1626300      2.10707
      10.5650       1.2448800      2.15583
      10.5814       1.3307500      2.20003
      10.5978       1.4258000      2.24332
      10.6143       1.5279300      2.28661
      10.6308       1.6505100      2.32448
      10.6474       1.7790300      2.35359
      10.6641       1.9311000      2.37764
      10.6807       2.1010499      2.38662
      10.6975       2.3024600      2.36656
      10.7143       2.5112000      2.31464
      10.7311       2.7600100      2.20863
      10.7480       2.9837501      2.01465
      10.7650       3.1752701      1.74792
      10.7820       3.2603400      1.40414
      10.7991       3.2136300      1.07575
      10.8162       3.0853701     0.826660
      10.8333       2.9346001     0.652880
      10.8506       2.7902601     0.540150
      10.8678       2.6619501     0.458750
      10.8852       2.5484600     0.404220
      10.9026       2.4515300     0.361870
      10.9200       2.3704901     0.323440
      10.9375       2.2813301     0.280340
      10.9551       2.1935101     0.263090
      10.9727       2.1205599     0.247840
      10.9903       2.0525999     0.237600
      11.0081       1.9882500     0.225220
      11.0259       1.9266400     0.219960
      11.0437       1.8693800     0.210340
      11.0616       1.8080300     0.201700
      11.0795       1.7390200     0.201030
      11.0976       1.6853499     0.214340
      11.1156       1.6315100     0.211810
      11.1338       1.5755700     0.225530
      11.1520       1.5283800     0.223170
      11.1702       1.4623200     0.229650
      11.1885       1.4040800     0.239230
      11.2069       1.3375900     0.252670
      11.2253       1.2723900     0.261710
      11.2438       1.1793300     0.279190
      11.2624       1.0882699     0.325600
      11.2810      0.99561000     0.378520
      11.2997      0.89502001     0.465650
      11.3184      0.82207000     0.577840
      11.3372      0.76018000     0.705200
      11.3561      0.73681003     0.849580
      11.3750      0.73325002     0.985150
      11.3940      0.75730002      1.11819
      11.4130      0.78451002      1.23847
      11.4322      0.83604002      1.36056
      11.4513      0.88581002      1.46627
      11.4706      0.95600998      1.57890
      11.4899       1.0254000      1.67566
      11.5093       1.1135300      1.78143
      11.5287       1.2054900      1.87856
      11.5482       1.3328000      1.97752
      11.5678       1.4565099      2.04929
      11.5874       1.6035200      2.13023
      11.6071       1.7619700      2.19680
      11.6269       1.9685100      2.25030
      11.6468       2.1766400      2.26004
      11.6667       2.4183700      2.24590
      11.6866       2.6688299      2.18101
      11.7067       2.9380500      2.03153
      11.7268       3.1454999      1.82099
      11.7470       3.3166399      1.53191
      11.7672       3.3607600      1.22170
      11.7876       3.3125300     0.925610
      11.8080       3.1926601     0.729760
      11.8284       3.0817699     0.575170
      11.8490       2.9590900     0.484480
      11.8696       2.8751600     0.410310
      11.8902       2.7859001     0.346260
      11.9110       2.7022600     0.298820
      11.9318       2.6298001     0.268310
      11.9527       2.5632401     0.241540
      11.9737       2.5135300     0.224800
      11.9947       2.4564300     0.196860
      12.0158       2.4115100     0.193980
      12.0370       2.3686900     0.167970
      12.0583       2.3219600     0.171890
      12.0796       2.2963901     0.157340
      12.1011       2.2584801     0.153260
      12.1226       2.2344501     0.138280
      12.1441       2.1931901     0.133610
      12.1658       2.1728699     0.132720
      12.1875       2.1461999     0.120840
      12.2093       2.1136401     0.116340
      12.2312       2.0913899     0.119560
      12.2531       2.0654500     0.110940
      12.2752       2.0403099     0.124890
      12.2973       2.0373499     0.120040
      12.3195       2.0141599     0.112630
      12.3418       1.9990000     0.109980
      12.3641       1.9797900     0.105470
      12.3866       1.9587500     0.100650
      12.4091       1.9382200     0.110190
      12.4317       1.9344200     0.107450
      12.4544       1.9148901     0.105810
      12.4771       1.9112900     0.103520
      12.5000       1.8910500    0.0932800
      12.5229       1.8772800    0.0922500
      12.5460       1.8523500    0.0904800
      12.5691       1.8478600     0.104110
      12.5922       1.8404100    0.0880400
      12.6155       1.8195800    0.0916800
      12.6389       1.8086500    0.0861600
      12.6623       1.7882200    0.0969700
      12.6859       1.7941800    0.0948500
      12.7095       1.7708499    0.0869800
      12.7332       1.7688200    0.0930400
      12.7570       1.7477200    0.0775700
      12.7809       1.7274700    0.0957200
      12.8049       1.7290500     0.101710
      12.8289       1.7286600    0.0984600
      12.8531       1.7165101    0.0871500
      12.8774       1.7031000    0.0911700
      12.9017       1.6966400    0.0876100
      12.9261       1.6858600    0.0825400
      12.9507       1.6635200    0.0805900
      12.9753       1.6589700    0.0975800
      13.0000       1.6595900    0.0826200
      13.0248       1.6367700    0.0818100
      13.0497       1.6239700    0.0858300
      13.0747       1.6156200    0.0974300
      13.0998       1.6158201    0.0930900
      13.1250       1.6047900    0.0954100
      13.1503       1.6026599    0.0871700
      13.1757       1.5817900    0.0861900
      13.2012       1.5731601    0.0891400
      13.2267       1.5574900    0.0978300
      13.2524       1.5641000     0.106080
      13.2782       1.5627500    0.0957700
      13.3041       1.5531800    0.0825400
      13.3301       1.5258000    0.0812300
      13.3562       1.5170600    0.0945600
      13.3823       1.5114100    0.0988800
      13.4086       1.5166200    0.0972300
      13.4350       1.4968600    0.0812900
      13.4615       1.4860300    0.0970700
      13.4881       1.4848100    0.0788900
      13.5148       1.4520500    0.0846400
      13.5417       1.4512399    0.0939600
      13.5686       1.4343700    0.0967300
      13.5956       1.4428500     0.102710
      13.6228       1.4212500    0.0814400
      13.6500       1.4019300     0.100650
      13.6774       1.3989300    0.0983700
      13.7048       1.3846500     0.107060
      13.7324       1.3885700     0.108370
      13.7601       1.3837200    0.0890400
      13.7879       1.3420900    0.0768200
      13.8158       1.3244400     0.108160
      13.8438       1.3252300    0.0934600
      13.8720       1.2863500     0.104520
      13.9002       1.2867000     0.119570
      13.9286       1.2695900     0.117280
      13.9571       1.2574800     0.118690
      13.9857       1.2257600     0.118100
      14.0144       1.2000300     0.137190
      14.0432       1.1819800     0.157280
      14.0722       1.1762800     0.169730
      14.1012       1.1522100     0.169010
      14.1304       1.1191900     0.181460
      14.1597       1.0743400     0.206410
      14.1892       1.0473900     0.261930
      14.2188       1.0357500     0.293420
      14.2484      0.99861997     0.350650
      14.2782      0.99585998     0.428420
      14.3082       1.0079200     0.520420
      14.3382       1.0779500     0.594220
      14.3684       1.1364501     0.654710
      14.3987       1.2618600     0.691430
      14.4292       1.3618500     0.664800
      14.4598       1.4544500     0.591830
      14.4904       1.4708700     0.517470
      14.5213       1.4910700     0.453000
      14.5522       1.4735800     0.394630
      14.5833       1.4524699     0.351910
      14.6146       1.4216400     0.333840
      14.6459       1.4123600     0.319090
      14.6774       1.3967600     0.298300
      14.7091       1.3740200     0.281050
      14.7408       1.3573200     0.277380
      14.7727       1.3408099     0.261680
      14.8048       1.3257600     0.259010
      14.8370       1.3010000     0.234060
      14.8693       1.2657400     0.254120
      14.9017       1.2727200     0.244880
      14.9344       1.2287500     0.238090
      14.9671       1.2158999     0.257900
      15.0000       1.2044400     0.264150
      15.0330       1.2079099     0.249460
      15.0662       1.1472800     0.231030
      15.0996       1.1086200     0.277640
      15.1330       1.0925100     0.294520
      15.1667       1.0556500     0.349540
      15.2004       1.0810800     0.409720
      15.2344       1.1059500     0.447730
      15.2685       1.1654299     0.473380
      15.3027       1.2176600     0.461820
      15.3371       1.2603600     0.421480
      15.3716       1.2717700     0.380620
      15.4063       1.2718400     0.328980
      15.4412       1.2513601     0.302460
      15.4762       1.2393600     0.257490
      15.5114       1.1900899     0.239660
      15.5467       1.1737800     0.228610
      15.5822       1.1287301     0.213350
      15.6179       1.1084400     0.226330
      15.6537       1.0920900     0.209430
      15.6897       1.0620199     0.198580
      15.7258       1.0194200     0.189650
      15.7621      0.98484999     0.212330
      15.7986      0.97874999     0.205170
      15.8353      0.93074000     0.199120
      15.8721      0.91035002     0.219550
      15.9091      0.88480002     0.203990
      15.9463      0.83763999     0.211960
      15.9836      0.80711001     0.222310
      16.0211      0.76969999     0.229840
      16.0588      0.73084003     0.237080
      16.0967      0.68116999     0.252630
      16.1348      0.63821000     0.277010
      16.1730      0.59166998     0.303350
      16.2114      0.54680002     0.339400
      16.2500      0.50480002     0.384230
      16.2888      0.47494999     0.434330
      16.3277      0.44865999     0.482030
