Pyroxene Minerals (crystalline) (Jäger et al. 1998) :Enstatite (normal to c-axis), s2from: http://www.astro.uni-jena.de/Laboratory/Database/data/silicate/ens_s2.lnk808 linesmicrons    n               k

Wavelength [microns]  Re(m)       Im(m)
      2.00000       1.5573300    0.0114850
      2.50000       1.5490700    0.0145400
      3.00000       1.5405900    0.0185300
      3.50000       1.5309401    0.0214700
      4.00000       1.5183100    0.0250300
      4.50000       1.5019100    0.0283060
      5.00000       1.4845700    0.0325500
      5.50000       1.4625100    0.0353680
      6.00000       1.4296200    0.0387800
      6.20000       1.4158300    0.0403160
      6.40000       1.3998300    0.0417900
      6.60000       1.3784699    0.0431020
      6.80000       1.3614200    0.0444420
      7.00000       1.3381300    0.0456100
      7.10000       1.3278700    0.0468070
      7.20000       1.3142500    0.0484200
      7.30000       1.2998500    0.0500910
      7.40000       1.2852700    0.0522560
      7.50000       1.2588400    0.0544400
      7.60000       1.2432300    0.0566500
      7.70000       1.2181600    0.0589720
      7.80000       1.1961100    0.0621300
      7.90000       1.1682400    0.0650000
      8.00117       1.1443599    0.0635410
      8.01056       1.1360199    0.0642700
      8.01998       1.1300600    0.0691630
      8.02941       1.1335200    0.0779280
      8.03887       1.1387000    0.0665500
      8.04835       1.1213400    0.0669510
      8.05785       1.1281000    0.0793380
      8.06738       1.1274101    0.0635340
      8.07692       1.1158500    0.0728570
      8.08649       1.1241200    0.0635130
      8.09609       1.1006401    0.0646450
      8.10570       1.1125000    0.0747590
      8.11534       1.0943000    0.0582220
      8.12500       1.0845300    0.0818900
      8.13468       1.0923500    0.0805510
      8.14439       1.0917701    0.0902290
      8.15412       1.1005501    0.0755320
      8.16388       1.0842600    0.0739810
      8.17365       1.0778900    0.0752900
      8.18345       1.0695800    0.0873260
      8.19328       1.0782700    0.0891810
      8.20313       1.0751801    0.0910870
      8.21300       1.0828900    0.0844380
      8.22289       1.0745900    0.0775610
      8.23281       1.0650001    0.0689110
      8.24275       1.0464900    0.0814750
      8.25272       1.0602900    0.0883490
      8.26271       1.0548600    0.0833110
      8.27273       1.0629500    0.0661870
      8.28277       1.0238000    0.0561420
      8.29283       1.0103500    0.0936970
      8.30292       1.0308700    0.0844100
      8.31303       1.0138201    0.0877790
      8.32317       1.0184100    0.0875000
      8.33333       1.0010099    0.0925880
      8.34352       1.0212700     0.103409
      8.35373       1.0071599    0.0756590
      8.36397      0.98212200    0.0981780
      8.37423       1.0104400    0.0984200
      8.38452      0.98774302    0.0818420
      8.39483      0.98736000    0.0958740
      8.40517      0.97746301    0.0774450
      8.41554      0.95724398    0.0952590
      8.42593      0.96691298    0.0922600
      8.43634      0.95078099    0.0927600
      8.44678      0.95049000    0.0908000
      8.45725      0.92729002    0.0919820
      8.46774      0.92632997     0.109007
      8.47826      0.92442000     0.114740
      8.48881      0.93833399     0.110952
      8.49938      0.92192501    0.0909920
      8.50998      0.90241498    0.0980130
      8.52060      0.89225000     0.104370
      8.53125      0.89212000     0.111190
      8.54193      0.88311797     0.102691
      8.55263      0.87154198     0.109109
      8.56336      0.86366200     0.103851
      8.57412      0.84527999     0.110460
      8.58491      0.84242499     0.115588
      8.59572      0.83010602     0.111561
      8.60656      0.81407702     0.116461
      8.61742      0.80332398     0.121358
      8.62832      0.79024899     0.126130
      8.63924      0.78127003     0.127740
      8.65019      0.75753999     0.126420
      8.66117      0.73542601     0.143283
      8.67217      0.71829498     0.156976
      8.68321      0.69775897     0.183534
      8.69427      0.69533700     0.224666
      8.70536      0.72841901     0.256267
      8.71647      0.76766402     0.244295
      8.72762      0.77826899     0.208853
      8.73880      0.76075202     0.180645
      8.75000      0.73904902     0.165670
      8.76123      0.71176499     0.154382
      8.77249      0.68394798     0.151711
      8.78378      0.65511900     0.152390
      8.79510      0.63014698     0.155919
      8.80645      0.59868503     0.159040
      8.81783      0.57191902     0.170360
      8.82924      0.54229301     0.177864
      8.84067      0.51658899     0.191635
      8.85214      0.48501101     0.197350
      8.86364      0.44969001     0.214834
      8.87516      0.41413900     0.230646
      8.88672      0.37555400     0.255204
      8.89830      0.33409700     0.283698
      8.90992      0.29684401     0.326955
      8.92157      0.26549700     0.372517
      8.93325      0.24504501     0.426656
      8.94495      0.23008500     0.473534
      8.95669      0.22142200     0.525677
      8.96846      0.21555100     0.569020
      8.98026      0.21329100     0.617147
      8.99210      0.21145999     0.656469
      9.00396      0.21120000     0.702426
      9.01585      0.21219000     0.741382
      9.02778      0.21592100     0.786206
      9.03974      0.21947201     0.823026
      9.05172      0.22492801     0.866487
      9.06374      0.22966801     0.902516
      9.07580      0.23632100     0.946218
      9.08788      0.24254900     0.983452
      9.10000      0.25260001      1.02791
      9.11215      0.26060101      1.06473
      9.12433      0.27281800      1.11027
      9.13655      0.28252399      1.14763
      9.14879      0.29700601      1.19517
      9.16107      0.30920601      1.23440
      9.17339      0.32788301      1.28394
      9.18573      0.34128600      1.32407
      9.19811      0.36393300      1.38057
      9.21053      0.38607699      1.42242
      9.22297      0.41321200      1.47986
      9.23545      0.44030401      1.52594
      9.24797      0.47685999      1.58995
      9.26052      0.51799798      1.63837
      9.27310      0.56639999      1.70100
      9.28571      0.61863297      1.75258
      9.29836      0.68878198      1.81812
      9.31105      0.76687700      1.86286
      9.32377      0.86296600      1.91124
      9.33653      0.96049100      1.93294
      9.34932       1.0745699      1.94920
      9.36214       1.1754000      1.93299
      9.37500       1.2802700      1.91017
      9.38790       1.3570400      1.86896
      9.40083       1.4405500      1.83230
      9.41379       1.4975600      1.78804
      9.42680       1.5764000      1.75564
      9.43983       1.6486400      1.69908
      9.45291       1.7248000      1.61916
      9.46602       1.7517800      1.52090
      9.47917       1.7571700      1.43565
      9.49235       1.7289799      1.37718
      9.50557       1.7088000      1.35386
      9.51883       1.7064000      1.36604
      9.53212       1.7602100      1.36599
      9.54545       1.8177299      1.34194
      9.55882       1.8963600      1.27630
      9.57223       1.9311200      1.17967
      9.58567       1.9406300      1.07502
      9.59916       1.9174200     0.989972
      9.61268       1.8881400     0.904222
      9.62623       1.8360500     0.848915
      9.63983       1.7980500     0.793771
      9.65347       1.7411799     0.755968
      9.66714       1.6986400     0.722628
      9.68085       1.6466300     0.699622
      9.69460       1.6042800     0.672934
      9.70839       1.5445000     0.659583
      9.72222       1.5024900     0.650542
      9.73609       1.4443700     0.641191
      9.75000       1.3926200     0.643200
      9.76395       1.3284700     0.647962
      9.77794       1.2651100     0.672939
      9.79197       1.1993999     0.712482
      9.80603       1.1468300     0.781268
      9.82014       1.1194900     0.863876
      9.83429       1.1232100     0.954633
      9.84848       1.1579601      1.03919
      9.86272       1.2307900      1.10769
      9.87699       1.3246000      1.13372
      9.89130       1.4221100      1.11551
      9.90566       1.4947701      1.05748
      9.92006       1.5406200     0.973739
      9.93450       1.5394400     0.882849
      9.94898       1.5137700     0.802627
      9.96350       1.4582200     0.737916
      9.97807       1.3987100     0.696980
      9.99268       1.3333000     0.663369
      10.0073       1.2606500     0.641552
      10.0220       1.1817800     0.631480
      10.0368       1.0977900     0.632220
      10.0515       1.0052000     0.649228
      10.0664      0.91320902     0.685357
      10.0812      0.81992400     0.740328
      10.0962      0.73665100     0.821170
      10.1111      0.67195499     0.918333
      10.1261      0.62965798      1.02372
      10.1412      0.60205901      1.12919
      10.1563      0.59285003      1.23640
      10.1714      0.59271300      1.33529
      10.1866      0.60230303      1.43439
      10.2018      0.61582702      1.52819
      10.2171      0.64050698      1.62413
      10.2324      0.66650301      1.71242
      10.2478      0.70197499      1.80440
      10.2632      0.73602599      1.89053
      10.2786      0.78252703      1.98313
      10.2941      0.82535899      2.06878
      10.3097      0.88315898      2.16719
      10.3253      0.94219202      2.25768
      10.3409       1.0207000      2.36010
      10.3566       1.1021900      2.45190
      10.3723       1.2065800      2.55352
      10.3881       1.3153300      2.64720
      10.4040       1.4652500      2.74474
      10.4199       1.6169400      2.81693
      10.4358       1.8170500      2.88671
      10.4518       2.0201001      2.90205
      10.4678       2.2419000      2.88957
      10.4839       2.4479001      2.83565
      10.5000       2.6561100      2.72130
      10.5162       2.7819800      2.59663
      10.5324       2.9166801      2.46023
      10.5487       2.9753001      2.33190
      10.5650       3.0567100      2.22352
      10.5814       3.0991800      2.11625
      10.5978       3.1496000      2.02852
      10.6143       3.2063501      1.96475
      10.6308       3.2890000      1.86078
      10.6474       3.3439400      1.77729
      10.6641       3.4339700      1.64642
      10.6807       3.4667301      1.51848
      10.6975       3.5155201      1.36680
      10.7143       3.5081999      1.21802
      10.7311       3.4887199      1.07138
      10.7480       3.4451201     0.957389
      10.7650       3.3957300     0.837519
      10.7820       3.3363700     0.763842
      10.7991       3.2901900     0.669274
      10.8162       3.2225499     0.610267
      10.8333       3.1721599     0.544184
      10.8506       3.1134400     0.502729
      10.8678       3.0686100     0.444644
      10.8852       2.9990900     0.407587
      10.9026       2.9471099     0.387546
      10.9200       2.9165499     0.370070
      10.9375       2.8780701     0.323690
      10.9551       2.8195300     0.303988
      10.9727       2.7768600     0.296750
      10.9903       2.7560899     0.288026
      11.0081       2.7198601     0.255228
      11.0259       2.6810200     0.250818
      11.0437       2.6518700     0.233600
      11.0616       2.6197000     0.225419
      11.0795       2.5847700     0.214161
      11.0976       2.5635500     0.217380
      11.1156       2.5390799     0.197405
      11.1338       2.5093701     0.195629
      11.1520       2.4785299     0.187580
      11.1702       2.4622400     0.199598
      11.1885       2.4460800     0.177226
      11.2069       2.4129601     0.184529
      11.2253       2.4022400     0.176930
      11.2438       2.3693800     0.175630
      11.2624       2.3493700     0.184982
      11.2810       2.3346400     0.195969
      11.2997       2.3269899     0.203731
      11.3184       2.3244600     0.212010
      11.3372       2.3283100     0.213300
      11.3561       2.3384600     0.204042
      11.3750       2.3334899     0.179740
      11.3940       2.3199000     0.160720
      11.4130       2.2904699     0.152631
      11.4322       2.2908900     0.159600
      11.4513       2.2778699     0.131203
      11.4706       2.2511899     0.131670
      11.4899       2.2350800     0.130930
      11.5093       2.2276700     0.135098
      11.5287       2.2154200     0.125990
      11.5482       2.2066000     0.126710
      11.5678       2.1894600     0.117831
      11.5874       2.1818600     0.123678
      11.6071       2.1646800     0.114771
      11.6269       2.1613600     0.128457
      11.6468       2.1543400     0.110501
      11.6667       2.1419599     0.118447
      11.6866       2.1324100     0.103643
      11.7067       2.1145999     0.115960
      11.7268       2.1113200     0.112351
      11.7470       2.1050899     0.123059
      11.7672       2.1082201     0.110201
      11.7876       2.0969300     0.111357
      11.8080       2.0929101    0.0977600
      11.8284       2.0754600     0.102679
      11.8490       2.0743401    0.0972800
      11.8696       2.0631499    0.0993480
      11.8902       2.0605299    0.0885820
      11.9110       2.0407300    0.0910100
      11.9318       2.0393100    0.0930300
      11.9527       2.0314500    0.0916400
      11.9737       2.0233700    0.0884310
      11.9947       2.0198600    0.0969380
      12.0158       2.0241899    0.0785740
      12.0370       1.9957700    0.0763420
      12.0583       1.9955100    0.0874480
      12.0796       1.9912200    0.0824200
      12.1011       1.9882100    0.0821900
      12.1226       1.9831600    0.0710900
      12.1441       1.9628500    0.0690610
      12.1658       1.9590100    0.0810290
      12.1875       1.9605600    0.0744100
      12.2093       1.9509600    0.0688610
      12.2312       1.9390900    0.0681300
      12.2531       1.9345599    0.0711700
      12.2752       1.9266500    0.0676300
      12.2973       1.9204500    0.0672000
      12.3195       1.9041200    0.0699090
      12.3418       1.9155200    0.0826690
      12.3641       1.9083600    0.0545510
      12.3866       1.8837100    0.0694300
      12.4091       1.8885700    0.0731800
      12.4317       1.8829401    0.0754600
      12.4544       1.8835400    0.0733300
      12.4771       1.8816400    0.0709590
      12.5000       1.8741800    0.0612400
      12.5229       1.8667600    0.0618280
      12.5460       1.8509500    0.0529730
      12.5691       1.8414299    0.0721390
      12.5922       1.8463399    0.0636800
      12.6155       1.8339500    0.0709490
      12.6389       1.8381600    0.0643700
      12.6623       1.8227201    0.0676700
      12.6859       1.8255301    0.0681600
      12.7095       1.8169000    0.0698400
      12.7332       1.8190399    0.0654500
      12.7570       1.8069600    0.0671000
      12.7809       1.8128700    0.0623700
      12.8049       1.7913300    0.0555510
      12.8289       1.7901599    0.0701390
      12.8531       1.7904100    0.0618700
      12.8774       1.7823700    0.0623400
      12.9017       1.7773300    0.0555800
      12.9261       1.7581800    0.0587520
      12.9507       1.7584200    0.0721680
      12.9753       1.7581600    0.0691010
      13.0000       1.7564200    0.0718100
      13.0248       1.7525100    0.0665000
      13.0497       1.7511801    0.0702190
      13.0747       1.7478800    0.0538620
      13.0998       1.7233000    0.0588710
      13.1250       1.7269500    0.0718500
      13.1503       1.7252300    0.0594900
      13.1757       1.7006900    0.0665040
      13.2012       1.7110000    0.0909700
      13.2267       1.7252001    0.0750530
      13.2524       1.7159700    0.0661890
      13.2782       1.7053900    0.0590900
      13.3041       1.6959100    0.0631300
      13.3301       1.6852100    0.0597410
      13.3562       1.6809400    0.0763970
      13.3823       1.6910501    0.0602320
      13.4086       1.6615700    0.0574700
      13.4350       1.6602900    0.0765300
      13.4615       1.6671400    0.0730200
      13.4881       1.6556700    0.0634410
      13.5148       1.6422800    0.0767490
      13.5417       1.6536300    0.0820380
      13.5686       1.6508400    0.0683100
      13.5956       1.6365100    0.0679600
      13.6228       1.6333801    0.0718290
      13.6500       1.6260300    0.0709200
      13.6774       1.6283200    0.0724500
      13.7048       1.6142800    0.0582610
      13.7324       1.6010799    0.0731280
      13.7601       1.6026800    0.0684000
      13.7879       1.5882200    0.0730400
      13.8158       1.5885299    0.0776300
      13.8438       1.5859801    0.0753300
      13.8720       1.5749400    0.0710800
      13.9002       1.5711700    0.0793090
      13.9286       1.5656700    0.0668510
      13.9571       1.5474100    0.0741410
      13.9857       1.5410900    0.0781020
      14.0144       1.5385900    0.0884990
      14.0432       1.5342900    0.0774300
      14.0722       1.5227799    0.0926970
      14.1012       1.5288100    0.0757000
      14.1304       1.4958301    0.0858880
      14.1597       1.5117199    0.0947100
      14.1892       1.4917600    0.0782800
      14.2188       1.4749500    0.0896200
      14.2484       1.4663399     0.101608
      14.2782       1.4674700     0.101900
      14.3082       1.4513000     0.105220
      14.3382       1.4483100     0.107721
      14.3684       1.4295501     0.116470
      14.3987       1.4375000     0.119450
      14.4292       1.4081500     0.115853
      14.4598       1.4136800     0.136807
      14.4904       1.3937700     0.113993
      14.5213       1.3626699     0.142372
      14.5522       1.3600700     0.159091
      14.5833       1.3544101     0.175198
      14.6146       1.3446000     0.174640
      14.6459       1.3148400     0.202757
      14.6774       1.3210400     0.243230
      14.7091       1.3364800     0.265678
      14.7408       1.3583900     0.277020
      14.7727       1.3718100     0.274399
      14.8048       1.3765000     0.268600
      14.8370       1.3739500     0.273540
      14.8693       1.3912500     0.270350
      14.9017       1.3822700     0.250690
      14.9344       1.3790600     0.249050
      14.9671       1.3628100     0.225493
      15.0000       1.3405000     0.230460
      15.0330       1.3223600     0.202570
      15.0662       1.2509600     0.209727
      15.0996       1.2227900     0.255341
      15.1330       1.2018100     0.269662
      15.1667       1.1643100     0.300063
      15.2004       1.1329100     0.333415
      15.2344       1.0887001     0.382844
      15.2685       1.0584100     0.456730
      15.3027       1.0409200     0.542279
      15.3371       1.0436100     0.644864
      15.3716       1.0739800     0.759614
      15.4063       1.1509800     0.874667
      15.4412       1.2611901     0.962705
      15.4762       1.4066499      1.02834
      15.5114       1.5810500      1.02789
      15.5467       1.7302999     0.968421
      15.5822       1.8515100     0.865495
      15.6179       1.9087300     0.741618
      15.6537       1.9405700     0.633311
      15.6897       1.9310800     0.515761
      15.7258       1.8885200     0.441524
      15.7621       1.8501000     0.392826
      15.7986       1.8185800     0.364891
      15.8353       1.8022900     0.332407
      15.8721       1.7663500     0.300603
      15.9091       1.7438700     0.297120
      15.9463       1.7379400     0.270692
      15.9836       1.7100400     0.248008
      16.0211       1.6912100     0.228008
      16.0588       1.6540400     0.210492
      16.0967       1.6276300     0.212270
      16.1348       1.6042700     0.206820
      16.1730       1.5771500     0.213631
      16.2114       1.5676100     0.228969
      16.2500       1.5719800     0.228650
      16.2888       1.5709400     0.216211
      16.3277       1.5567400     0.188141
